Stress;Strain
652643.619;0.000114552
670093.9048;0.00012321
691470.6667;0.000132534
735532.7619;0.000142524
750365.5238;0.000151182
771305.9048;0.000159174
788756.381;0.0001665
814059.4286;0.000172494
834999.8095;0.000178488
848087.619;0.00018315
861611.619;0.000189144
873390.6667;0.00019647
877753.1429;0.000203796
880807.0476;0.00020979
904801.3333;0.00021645
915707.8095;0.00022311
923560.381;0.000230436
936212;0.000237096
952789.7143;0.00024309
965005.1429;0.000251082
981582.8571;0.000259074
997288.381;0.000265734
1007322.095;0.000272394
1022154.857;0.000280386
1040477.905;0.000287712
1053129.333;0.00029637
1060545.714;0.000305694
1097627.81;0.000315684
1108534.286;0.00032301
1126857.143;0.000330336
1141253.714;0.000336996
1154341.524;0.000344988
1168301.714;0.000352314
1183134.476;0.000358974
1199276.19;0.000367632
1214108.952;0.000377622
1227196.762;0.000388278
1243338.286;0.000398934
1265151.238;0.000408924
1290454.286;0.000418248
1333207.81;0.000426906
1344986.667;0.000434898
1369417.143;0.000441558
1387303.81;0.000447552
1399519.048;0.000454878
1413043.238;0.000462204
1420459.429;0.000468198
1420023.238;0.000473526
1439218.667;0.000478854
1448380.19;0.000484182
1454487.81;0.000490176
1464957.905;0.00049617
1476736.952;0.000502164
1483280.762;0.000507492
1495059.81;0.00051282
1508583.81;0.000518148
1515127.81;0.00052281
1515782.095;0.000527472
1521671.619;0.000533466
1527124.952;0.000538128
1533014.476;0.000543456
1549592.19;0.000548118
1557444.762;0.000554112
1553300.381;0.00055944
1559408;0.0005661
1572277.714;0.000573426
1584492.952;0.000580086
1597144.571;0.000586746
1607178.476;0.000593406
1615467.238;0.000600066
1630300.19;0.000607392
1647750.476;0.00061605
1663455.81;0.000625374
1675671.238;0.000633366
1686141.333;0.000642024
1707081.714;0.000651348
1733257.333;0.000660672
1751580;0.000669996
1764667.81;0.000678654
1782554.667;0.00068598
1800441.143;0.000693972
1813092.762;0.000701298
1826180.381;0.000707958
1841013.143;0.000713952
1857591.048;0.000719946
1868497.524;0.000725274
1864353.143;0.000731934
1871115.238;0.000740592
1876132.19;0.000747918
1892491.619;0.00075591
1907323.81;0.00076257
1924339.048;0.000770562
1938735.238;0.000777888
1951822.857;0.000785214
1965346.667;0.000791874
1974944.762;0.0007992
1982798.095;0.000806526
1996758.095;0.000814518
2008100.952;0.000821178
2018135.238;0.000828504
2031222.857;0.000835164
2043001.905;0.000840492
2054344.762;0.000846486
2062196.19;0.000853146
2070049.524;0.000859806
2077902.857;0.000866466
2077466.667;0.000873126
2095352.381;0.000879786
2108876.19;0.000886446
2118910.476;0.000893106
2126325.714;0.0008991
2136360;0.000905094
2148575.238;0.000910422
2159918.095;0.000916416
2155556.19;0.000921078
2161881.905;0.00092574
2167771.429;0.0009324
2179986.667;0.000939726
2178022.857;0.000947052
2184567.619;0.000955044
2198744.762;0.00096237
2208779.048;0.00096903
2222302.857;0.00097569
2240190.476;0.000981018
2252405.714;0.000987678
2258512.381;0.00099567
2259603.81;0.001002996
2274655.238;0.001009656
2283817.143;0.001014984
2293849.524;0.001021644
2303447.619;0.00102897
2314354.286;0.001036962
2323952.381;0.001042956
2334859.048;0.00104895
2345765.714;0.001056276
2352744.762;0.00106227
2351219.048;0.00106893
2357106.667;0.001074924
2362560;0.001080918
2367140.952;0.001088244
2371940.952;0.001094238
2374558.095;0.001100898
2377175.238;0.001106226
2392009.524;0.00111222
2409895.238;0.001116882
2420365.714;0.00112221
2416874.286;0.001128204
2422546.667;0.001134864
2425600;0.00114219
2429527.619;0.001150182
2444360;0.001157508
2454830.476;0.001164834
2464862.857;0.001170828
2474460.952;0.001178154
2482314.286;0.001186146
2491476.19;0.001192806
2501946.667;0.001200132
2509798.095;0.001206126
2509361.905;0.001212786
2526813.333;0.00121878
2535100.952;0.00122544
2533792.381;0.001232766
2540554.286;0.00123876
2547535.238;0.001244754
2565203.81;0.001249416
2570438.095;0.001254744
2572182.857;0.001259406
2589634.286;0.001264734
2583744.762;0.00127206
2590506.667;0.001279386
2592032.381;0.001284714
2594868.571;0.001290708
2602285.714;0.001296702
2617990.476;0.00130203
2613845.714;0.001307358
2621699.048;0.001312686
2636314.286;0.001317348
2632386.667;0.00132201
2641548.571;0.00132867
2646565.714;0.001333998
2650491.429;0.001339992
2654200;0.001347318
2657908.571;0.001354644
2660525.714;0.001360638
2664670.476;0.001366632
2671868.571;0.001371294
2687356.19;0.00137529
2684520;0.001379952
2692590.476;0.001383948
2706988.571;0.00138861
2704369.524;0.001393272
2707859.048;0.001399266
2707422.857;0.001405926
2702952.381;0.001412586
2705897.143;0.001419246
2709278.095;0.001426572
2717676.19;0.0014319
2738398.095;0.001437228
2750177.143;0.001443222
2753666.667;0.001449882
2753013.333;0.001456542
2755411.429;0.001463202
2758902.857;0.001469862
2763483.81;0.001475856
2777660.952;0.001482516
2775480;0.001489842
2783114.286;0.001497168
2803836.19;0.00150516
2815179.048;0.001513152
2810380.952;0.001521144
2820196.19;0.00152847
2843100.952;0.001535796
2852260.952;0.001543122
2860114.286;0.001550448
2871020.952;0.001557774
2881055.238;0.001565766
2888470.476;0.001573092
2888253.333;0.001580418
2895451.429;0.001587744
2914647.619;0.001593738
2925116.19;0.001599066
2922062.857;0.00160506
2940822.857;0.001609722
2947801.905;0.00161505
2944312.381;0.001620378
2948457.143;0.00162504
2949984.762;0.001629702
2954127.619;0.001634364
2958055.238;0.001640358
2961325.714;0.001647018
2961763.81;0.001653012
2957619.048;0.00165834
2960672.381;0.001663668
2978340.952;0.001668996
2973760;0.001674324
2979213.333;0.001678986
2984666.667;0.001684314
2986847.619;0.001689642
2990556.19;0.001696968
2995137.143;0.001703628
2998190.476;0.001709622
3001899.048;0.001716282
3008441.905;0.001722942
3022838.095;0.001730268
3032436.19;0.001738926
3040289.524;0.001746252
3048579.048;0.001752912
3060794.286;0.001760238
3066464.762;0.001769562
3067773.333;0.00177822
3092640;0.001786878
3107474.286;0.001796202
3120561.905;0.001805526
3137139.048;0.001814184
3151099.048;0.001822176
3165931.429;0.001829502
3179019.048;0.001836162
3187744.762;0.001843488
3195161.905;0.001850148
3192980.952;0.001857474
3198215.238;0.001865466
3201268.571;0.001872792
3206504.762;0.001880118
3225699.048;0.001886778
3237914.286;0.001892772
3245767.619;0.001899432
3256674.286;0.001905426
3261036.19;0.00191142
3257982.857;0.00191808
3263000;0.00192474
3263000;0.001930068
3264744.762;0.001937394
3267580.952;0.001944054
3266053.333;0.001950714
3274779.048;0.001958706
3293756.19;0.001966032
3302918.095;0.001973358
3300299.048;0.00198135
3307280;0.001990008
3312078.095;0.001998666
3318186.667;0.00200799
3335200;0.002015316
3352215.238;0.00202131
3367483.81;0.00202797
3371409.524;0.002037294
3370537.143;0.002046618
3374900.952;0.002055942
3391914.286;0.002063934
3408055.238;0.00207126
3418089.524;0.002078586
3430304.762;0.002085246
3442956.19;0.002093238
3449937.143;0.002099898
3446447.619;0.002106558
3453426.667;0.002113218
3469131.429;0.002118546
3474367.619;0.00212454
3474584.762;0.002131866
3478293.333;0.002139858
3481565.714;0.002146518
3485927.619;0.002151846
3489200;0.002159172
3495306.667;0.002166498
3501634.286;0.002172492
3506649.524;0.00217782
3510577.143;0.002182482
3512975.238;0.002187144
3514285.714;0.002193138
3517120;0.002199798
3519739.048;0.002205792
3520828.571;0.00221112
3523228.571;0.002216448
3524754.286;0.002223108
3522245.714;0.002229102
3523664.762;0.00223443
3526173.333;0.002240424
3528245.714;0.002247084
3537843.81;0.002253744
3543078.095;0.00226107
3546786.667;0.002268396
3549403.81;0.002276388
3554638.095;0.002285046
3576451.429;0.00229437
3583432.381;0.002303694
3582340.952;0.002313018
3604371.429;0.002322342
3619205.714;0.002331666
3627493.333;0.002339658
3645380.952;0.00234765
3664577.143;0.002356308
3673300.952;0.002362968
3671775.238;0.002369628
3679845.714;0.002375622
3685080;0.002382948
3686388.571;0.002390274
3687260.952;0.002396268
3687916.19;0.002402928
3687260.952;0.002408256
3689552.381;0.002412918
3697078.095;0.002418246
3697731.429;0.002423574
3699476.19;0.002428902
3702748.571;0.002435562
3700676.19;0.002441556
3705584.762;0.002448882
3707329.524;0.002455542
3706238.095;0.002461536
3721725.714;0.002468196
3733940.952;0.002475522
3740049.524;0.002482848
3736560;0.002490174
3741794.286;0.0024975
3744411.429;0.002503494
3749864.762;0.002509488
3755754.286;0.002515482
3760771.429;0.002522142
3766660.952;0.002528802
3783238.095;0.002535462
3793708.571;0.002543454
3790655.238;0.002551446
3797198.095;0.002558772
3801561.905;0.002565432
3807232.381;0.002573424
3824247.619;0.002582082
3829045.714;0.00259074
3829700.952;0.002599398
3848241.905;0.002608722
3861765.714;0.002616048
3867000;0.002622042
3868308.571;0.002629368
3887940.952;0.002636028
3891866.667;0.002642022
3890340.952;0.002648016
3892521.905;0.002654676
3893830.476;0.002662002
3895575.238;0.002669328
3893721.905;0.002676654
3901900.952;0.00268398
3906481.905;0.00269064
3911716.19;0.0026973
3917169.524;0.002702628
3918260.952;0.002707956
3920005.714;0.00271395
3919569.524;0.002719278
3918805.714;0.00272394
3920878.095;0.002728602
3922841.905;0.002735262
3929167.619;0.002741922
3929822.857;0.002749248
3931567.619;0.00275391
3933529.524;0.002758572
3931240;0.002764566
3932657.143;0.002769894
3934293.333;0.002774556
3935493.333;0.002778552
3935601.905;0.002783214
3935710.476;0.002789208
3934620.952;0.002795868
3927422.857;0.002802528
3927203.81;0.002807856
3932548.571;0.00281385
3932440;0.002821176
3937238.095;0.002827836
3940291.429;0.00283383
3944872.381;0.00284049
3949017.143;0.002848482
3956651.429;0.002855142
3971266.667;0.002862468
3966466.667;0.002869794
3971920;0.00287712
3986099.048;0.00288378
3999622.857;0.002889774
4007912.381;0.0028971
4006167.619;0.002904426
4013582.857;0.002909754
4020127.619;0.002916414
4034960;0.002921076
4032123.81;0.002925738
4038232.381;0.0029304
4043030.476;0.002935062
4044775.238;0.00294039
4044775.238;0.002945718
4039868.571;0.002952378
4040849.524;0.002959704
4035615.238;0.00296703
4036704.762;0.002974356
4041721.905;0.002981016
4058954.286;0.002986344
4066371.429;0.002993004
4066152.381;0.00300033
4072041.905;0.003006324
4076622.857;0.003012984
4081203.81;0.003019644
4084257.143;0.003026304
4087746.667;0.003032298
4092546.667;0.003037626
4098000;0.00304362
4113487.619;0.003048948
4108470.476;0.003054276
4109123.81;0.003058938
4109779.048;0.003064266
4106942.857;0.003068928
4109123.81;0.003074922
4111415.238;0.003080916
4112179.048;0.00308691
4111740.952;0.00309357
4117630.476;0.00310023
4116977.143;0.003106224
4125264.762;0.003112218
4130500.952;0.003118878
4133554.286;0.003125538
4134645.714;0.003132198
4137918.095;0.003138192
4152750.476;0.003144852
4148386.667;0.003150846
4156459.048;0.003157506
4160601.905;0.003164166
4166491.429;0.003171492
4171291.429;0.003178818
4174563.81;0.00318681
4178489.524;0.003194136
4181979.048;0.003201462
4198558.095;0.003208788
4204228.571;0.003216114
4202700.952;0.00322344
4207500.952;0.003230766
4212299.048;0.003238092
4228222.857;0.003244086
4233457.143;0.00325008
4231931.429;0.00325674
4236729.524;0.003262734
4239346.667;0.003268728
4242401.905;0.003274722
4246544.762;0.00328005
4248727.619;0.003285378
4251561.905;0.003291372
4254834.286;0.0032967
4255706.667;0.003302028
4258323.81;0.00330669
4260942.857;0.003310686
4257887.619;0.003314682
4259198.095;0.003319344
4261051.429;0.003325338
4261487.619;0.003330666
4262579.048;0.003335328
4263451.429;0.003340656
4263777.143;0.00334665
4263342.857;0.003351978
4264323.81;0.003359304
4265413.333;0.003365964
4266613.333;0.003373956
4273594.286;0.003381948
4279920;0.003389274
4296716.19;0.0033966
4304567.619;0.003404592
4303914.286;0.00341325
4321144.762;0.003421242
4335542.857;0.003428568
4346885.714;0.003435894
4342960;0.003445218
4350811.429;0.00345321
4367388.571;0.00345987
4380914.286;0.003465864
4386148.571;0.00347319
4385929.524;0.003481848
4390729.524;0.00348984
4395965.714;0.003497832
4412323.81;0.003505824
4423230.476;0.00351315
4430211.429;0.00351981
4429775.238;0.003527136
4436754.286;0.003535128
4443299.048;0.003542454
4448969.524;0.003550446
4456603.81;0.003557106
4473400;0.0035631
4469691.429;0.003568428
4475144.762;0.003573756
4473836.19;0.003580416
4467620.952;0.00358641
4468493.333;0.00359307
4466638.095;0.003601062
4471874.286;0.003608388
4473182.857;0.00361638
4481253.333;0.003624372
4485834.286;0.003632364
4489979.048;0.003640356
4494558.095;0.003648348
4509173.333;0.003655674
4507211.429;0.003663666
4513754.286;0.003670992
4521388.571;0.003678318
4541893.333;0.00368631
4552363.81;0.003694302
4548436.19;0.003703626
4554761.905;0.00371295
4560651.429;0.003722274
4584209.524;0.003730266
4599480;0.003737592
4605586.667;0.00374625
4605369.524;0.003754908
4612348.571;0.003762234
4626963.81;0.003770226
4637870.476;0.003778218
4649649.524;0.003783546
4653139.048;0.003787542
4652047.619;0.003792204
4655539.048;0.003797532
4653575.238;0.003804192
4648340.952;0.003810186
4650958.095;0.00381618
4652375.238;0.003822174
4653358.095;0.003828834
4653683.81;0.00383616
4653575.238;0.003843486
4657283.81;0.00384948
4655539.048;0.00385614
4658264.762;0.0038628
4660883.81;0.003867462
4669718.095;0.00387279
4672552.381;0.003878118
4672988.571;0.003883446
4667862.857;0.003888774
4669718.095;0.00389277
4669718.095;0.003897432
4664481.905;0.003903426
4662081.905;0.003908754
4658156.19;0.00391608
4658373.333;0.003924738
4662192.381;0.00393273
4662737.143;0.003942054
4668843.81;0.003950046
4684114.286;0.003958038
4695457.143;0.003966696
4702872.381;0.00397602
4713779.048;0.003984678
4723813.333;0.003994668
4720977.143;0.004003326
4728394.286;0.004011318
4746062.857;0.004019976
4761767.619;0.0040293
4768748.571;0.004037958
4768312.381;0.00404595
4775946.667;0.004053276
4792306.667;0.004061268
4800594.286;0.004068594
4799066.667;0.00407592
4806266.667;0.004083246
4811500.952;0.004089906
4815426.667;0.004096566
4818918.095;0.004103226
4819790.476;0.004109886
4821099.048;0.00411588
4825680;0.004121874
4838112.381;0.004127868
4831786.667;0.004133862
4834186.667;0.004139856
4829278.095;0.004146516
4830150.476;0.004151844
4831897.143;0.004157838
4833314.286;0.004164498
4833205.714;0.004170492
4834186.667;0.004176486
4842040;0.004181148
4842912.381;0.00418581
4844438.095;0.004191804
4841057.143;0.004197798
4841603.81;0.00420246
4842803.81;0.004207122
4844874.286;0.004213782
4846401.905;0.004221774
4853163.81;0.004229766
4854908.571;0.004238424
4856653.333;0.004247082
4858617.143;0.004255074
4872577.143;0.004261734
4883047.619;0.004269726
4889156.19;0.004277052
4890028.571;0.00428571
4895481.905;0.00429237
4902460.952;0.00429903
4909005.714;0.00430569
4923619.048;0.00431235
4921874.286;0.004319676
4926674.286;0.004327668
4931255.238;0.004336326
4933436.19;0.004344984
4939325.714;0.004354308
4954594.286;0.004362966
4966809.524;0.004370292
4982078.095;0.00437562
4992984.762;0.004380948
4999093.333;0.004387608
4995820.952;0.004393602
4994729.524;0.004397598
4993640;0.00440226
4990803.81;0.00440559
4992112.381;0.00440892
4984914.286;0.004412916
4966809.524;0.004417578
4959828.571;0.00442224
4960920;0.004426236
4956339.048;0.004430898
4952630.476;0.004436226
4948268.571;0.004440888
4944779.048;0.00444555
4940415.238;0.00445221
4938017.143;0.004458204
4939979.048;0.004464198
4943906.667;0.004472856
4943251.429;0.004482846
4948704.762;0.004492836
4951758.095;0.004501494
4968990.476;0.004510152
4989059.048;0.004516812
5007817.143;0.004522806
5013489.524;0.004528134
5010872.381;0.004534794
5015015.238;0.004540122
5017851.429;0.004546116
5020032.381;0.004550778
5020251.429;0.004556106
5017198.095;0.0045621
5017523.81;0.004568094
5018179.048;0.004574088
5018723.81;0.004579416
5020142.857;0.004584078
5019923.81;0.00458874
5027885.714;0.004593402
5028977.143;0.004599396
5024504.762;0.00460539
5030502.857;0.004612716
5028977.143;0.004619376
5031049.524;0.004626702
5037264.762;0.004632696
5040754.286;0.00463869
5043809.524;0.00464535
5049699.048;0.00465201
5054933.333;0.004657338
5057552.381;0.004662666
5059950.476;0.004667994
5060169.524;0.004674654
5058097.143;0.004679982
5065186.667;0.00468531
5068020.952;0.004690638
5069767.619;0.004695966
5070420.952;0.00470196
5067803.81;0.004707288
5069548.571;0.004712616
5071948.571;0.00471861
5073148.571;0.004724604
5071948.571;0.004730598
5072384.762;0.004737258
5073910.476;0.004743252
5075655.238;0.004751244
5081763.81;0.00475857
5088089.524;0.004763898
5105102.857;0.004770558
5109466.667;0.004777218
5104885.714;0.004783878
5106411.429;0.004791204
5104666.667;0.004797864
5103358.095;0.00480519
5107830.476;0.00481185
5126916.19;0.00481851
5122990.476;0.004825836
5129752.381;0.004832496
5135859.048;0.004839822
5149165.714;0.004847814
5147201.905;0.004853808
5153746.667;0.004860468
5158544.762;0.004866462
5162689.524;0.004873788
5166834.286;0.004881114
5169670.476;0.004889106
5172942.857;0.004895766
5178177.143;0.004902426
5182975.238;0.00490842
5188211.429;0.00491508
5193009.524;0.004921074
5196935.238;0.004926402
5199990.476;0.004933062
5201080;0.00493839
5201080;0.004943718
5200316.19;0.00494838
5202824.762;0.004953708
5208714.286;0.004959036
5210460.952;0.004964364
5205224.762;0.004969692
5204024.762;0.00497502
5199990.476;0.004981014
5200862.857;0.004986342
5212860.952;0.004991004
5206097.143;0.004996998
5211986.667;0.005002326
5211114.286;0.00500832
5208060.952;0.005014314
5211550.476;0.005020974
5213733.333;0.0050283
5220493.333;0.005036292
5225293.333;0.005044284
5226819.048;0.005050944
5231836.19;0.00505827
5237289.524;0.005065596
5253868.571;0.005072922
5261720;0.00508158
5261283.81;0.005088906
5268481.905;0.00509823
5275245.714;0.005107554
5290514.286;0.005115546
5305346.667;0.005123538
5318870.476;0.005130864
5327596.19;0.005138856
5336758.095;0.005146848
5344609.524;0.00515484
5354643.81;0.005162166
5362495.238;0.005168826
5359880;0.005175486
5369040;0.005182812
5384744.762;0.005190138
5380382.857;0.00519813
5385182.857;0.005206122
5386053.333;0.005212116
5387800;0.00521811
5391725.714;0.005224104
5396306.667;0.005230764
5400451.429;0.00523809
5401977.143;0.005245416
5403068.571;0.005252076
5405032.381;0.005259402
5402851.429;0.005267394
5403832.381;0.005274054
5405468.571;0.005280714
5418337.143;0.005287374
5423573.333;0.0052947
5420954.286;0.005303358
5425535.238;0.005312016
5429243.81;0.005320674
5433607.619;0.005328666
5440150.476;0.005335326
5447131.429;0.005343318
5461527.619;0.00535131
5458910.476;0.005359968
5464800;0.005369292
5478540.952;0.005377284
5490320;0.005383944
5500354.286;0.00539127
5511260.952;0.005399262
5521295.238;0.00540792
5529146.667;0.005415246
5528057.143;0.005422572
5532201.905;0.005429232
5536344.762;0.005435892
5538527.619;0.005443884
5540489.524;0.005451876
5545289.524;0.005458536
5549215.238;0.005463864
5555540.952;0.005468526
5560994.286;0.005473188
5562085.714;0.00547785
5564483.81;0.005483178
5557721.905;0.005488506
5545725.714;0.0054945
5542672.381;0.005500494
5543761.905;0.005505822
5542889.524;0.005511816
5543980.952;0.005519142
5546815.238;0.005525136
5544306.667;0.005529798
5545834.286;0.005535792
5561430.476;0.00554112
5556632.381;0.005546448
5559904.762;0.00555111
5558594.286;0.00555777
5554560;0.00556443
5556849.524;0.005570424
5557940.952;0.005577084
