Stress;Strain
623850.4762;0.000101232
634320.7619;0.00010656
646972.1905;0.000111888
656133.7143;0.000118548
662241.3333;0.000125874
672275.2381;0.000132534
688853.1429;0.000140526
708920.9524;0.00014652
724190.0952;0.000154512
734660.1905;0.000161838
749493.1429;0.000169164
767816;0.000175824
779595.0476;0.00018315
790065.1429;0.000188478
806643.0476;0.000193806
822348.381;0.000200466
831073.5238;0.000208458
838053.7143;0.00021645
847651.4286;0.000225108
862920.381;0.000234432
883424.7619;0.00024309
908291.4286;0.000250416
933594.4762;0.000257076
950172.1905;0.000264402
963696.381;0.000271062
975475.2381;0.000277722
988126.8571;0.000283716
999905.7143;0.00028971
1009939.619;0.000295704
1023027.429;0.000301698
1026081.333;0.000307026
1024554.476;0.000311688
1033497.714;0.00031635
1060545.714;0.000321678
1066653.333;0.00032634
1065126.476;0.000330336
1070143.429;0.000334998
1072979.238;0.000340992
1078868.762;0.000345654
1082795.048;0.000350316
1086503.238;0.000354978
1092174.667;0.000362304
1104607.81;0.000370296
1111588;0.000376956
1122058.286;0.000384282
1135146.095;0.000391608
1150851.429;0.000398934
1169174.286;0.000405594
1185315.81;0.000411588
1197094.857;0.000418248
1206692.571;0.00042624
1217599.048;0.000433566
1233304.381;0.000438894
1250318.476;0.000444222
1266460;0.000451548
1274312.571;0.000458208
1271913.333;0.000465534
1295253.143;0.000471528
1315757.333;0.000478854
1325355.048;0.000485514
1331899.048;0.000492174
1344550.476;0.000498834
1359383.238;0.000503496
1367236;0.000508158
1376833.524;0.000514152
1389048.952;0.00051948
1395592.762;0.000526806
1394938.476;0.0005328
1413479.429;0.00053946
1427003.429;0.000545454
1436601.143;0.000550782
1446198.857;0.000556776
1459722.857;0.000563436
1473246.857;0.000570096
1485462.095;0.00057609
1498986.286;0.00058275
1509020.19;0.000588744
1515564;0.000594738
1516000.381;0.000601398
1539994.476;0.000607392
1553082.286;0.000613386
1555699.619;0.000620046
1557881.143;0.00062604
1574895.238;0.000632034
1586674.286;0.000638694
1596708.19;0.000645354
1603688.19;0.000651348
1604124.571;0.000656676
1625501.333;0.000662004
1638152.762;0.000667998
1647314.095;0.000674658
1654730.667;0.000680652
1654294.286;0.000687312
1661274.476;0.000693306
1678288.571;0.000699966
1689195.238;0.000706626
1700974.095;0.000713952
1711008.19;0.000721278
1718424.381;0.000728604
1731076;0.000735264
1745908.762;0.000741258
1758124;0.000747918
1763359.048;0.000753246
1763141.143;0.000759906
1770775.619;0.000765234
1787353.333;0.000771894
1784735.81;0.000778554
1792370.476;0.000785214
1798259.81;0.000791208
1819636.571;0.000798534
1833596.762;0.000804528
1837086.857;0.000809856
1839486.286;0.00081585
1854101.143;0.000821178
1852137.905;0.000827172
1858027.238;0.000833832
1862171.81;0.000839826
1868279.619;0.000845154
1889001.714;0.000849816
1910379.048;0.000855144
1922158.095;0.000859806
1916485.714;0.000865134
1920630.476;0.000869796
1920413.333;0.000875124
1922158.095;0.000881118
1919866.667;0.00088578
1928264.762;0.000890442
1933500.952;0.000895104
1938735.238;0.000901098
1944624.762;0.000907092
1950950.476;0.00091242
1955967.619;0.000918414
1960765.714;0.000924408
1967091.429;0.000930402
1981489.524;0.000937062
1979742.857;0.000944388
1988251.429;0.000951048
2011590.476;0.000958374
2021624.762;0.0009657
2018788.571;0.000974358
2037765.714;0.000981684
2053908.571;0.000988344
2066996.19;0.000997002
2080083.81;0.00100566
2092299.048;0.001013652
2101897.143;0.00102231
2115857.143;0.001030302
2130689.524;0.001038294
2142032.381;0.001046952
2157737.143;0.00105561
2169952.381;0.001063602
2179986.667;0.001071594
2198744.762;0.001079586
2216196.19;0.001087578
2223613.333;0.001094238
2233209.524;0.001101564
2245424.762;0.00110889
2253714.286;0.00111555
2261131.429;0.001121544
2259822.857;0.00112887
2267674.286;0.001137528
2283817.143;0.001146186
2290796.19;0.001153512
2302575.238;0.001159506
2320462.857;0.0011655
2330931.429;0.001172826
2324824.762;0.001180152
2328750.476;0.001186146
2331586.667;0.001192806
2343582.857;0.001200132
2341401.905;0.001207458
2348819.048;0.001214784
2355361.905;0.001221444
2372377.143;0.001227438
2381975.238;0.00123543
2388518.095;0.001243422
2398552.381;0.001252746
2410331.429;0.001262736
2423419.048;0.001271394
2439998.095;0.001280718
2455266.667;0.00128871
2471407.619;0.001296036
2489293.333;0.001302696
2503255.238;0.001309356
2510670.476;0.001316016
2518523.81;0.001322676
2526813.333;0.00132867
2525066.667;0.001336662
2530956.19;0.001343988
2536192.381;0.001351314
2541426.667;0.001359306
2560403.81;0.001367298
2572182.857;0.00137529
2575674.286;0.001382616
2579163.81;0.001389276
2602721.905;0.001395936
2611447.619;0.00140193
2617990.476;0.001406592
2617337.143;0.001411254
2619735.238;0.001415916
2622571.429;0.00142191
2624971.429;0.001427238
2626716.19;0.001433898
2628460.952;0.001439892
2630205.714;0.001445886
2628569.524;0.001452546
2636095.238;0.00145854
2643076.19;0.0014652
2649619.048;0.001471194
2655291.429;0.001477854
2658563.81;0.001484514
2662270.476;0.00149184
2666198.095;0.0014985
2669251.429;0.001506492
2676449.524;0.001513818
2681466.667;0.00152181
2685828.571;0.001529802
2692373.333;0.001537794
2713095.238;0.001546452
2730544.762;0.00155511
2738398.095;0.001563768
2748868.571;0.00157176
2759775.238;0.001580418
2768500.952;0.00158841
2780278.095;0.001596402
2788567.619;0.001604394
2799474.286;0.001612386
2817798.095;0.001619712
2829140.952;0.001627038
2834375.238;0.00163503
2835683.81;0.001642356
2840918.095;0.001649682
2848771.429;0.001657008
2853571.429;0.001663668
2856405.714;0.001670994
2863167.619;0.001676988
2880182.857;0.001683648
2888470.476;0.001689642
2885636.19;0.001696302
2889125.714;0.001702962
2891089.524;0.001709622
2894142.857;0.00171495
2909411.429;0.001720278
2913773.333;0.00172494
2910720;0.001730268
2913773.333;0.001735596
2914864.762;0.00174159
2915300.952;0.001747584
2913556.19;0.001752912
2915737.143;0.00175824
2916828.571;0.001763568
2918573.333;0.00177156
2925116.19;0.001779552
2928171.429;0.001786878
2931878.095;0.001794204
2937767.619;0.00180153
2958272.381;0.00180819
2973542.857;0.00181485
2983575.238;0.001820844
2990556.19;0.00182817
2988592.381;0.001836162
2992520;0.001844154
3000590.476;0.00185148
3022838.095;0.001858806
3029382.857;0.001866798
3028510.476;0.001874124
3033308.571;0.001880784
3037672.381;0.00188811
3043998.095;0.00189477
3058613.333;0.00190143
3058175.238;0.00190809
3065375.238;0.001915416
3070390.476;0.001922742
3075843.81;0.001930734
3080207.619;0.00193806
3085441.905;0.001947384
3091767.619;0.00195471
3098748.571;0.00196137
3116634.286;0.00196803
3127540.952;0.00197469
3137139.048;0.001980684
3145428.571;0.001986678
3143245.714;0.001992006
3146737.143;0.001998666
3147826.667;0.002005326
3148045.714;0.002011986
3151099.048;0.00201798
3167241.905;0.002021976
3161133.333;0.002025972
3163750.476;0.002029968
3165278.095;0.00203463
3160478.095;0.002039958
3160697.143;0.002045286
3145864.762;0.002051946
3151318.095;0.002059272
3148481.905;0.002065932
3149354.286;0.00207126
3154916.19;0.00207792
3153824.762;0.002085246
3159605.714;0.002092572
3166367.619;0.002100564
3183819.048;0.00210789
3195161.905;0.002115216
3209121.905;0.002121876
3220464.762;0.002128536
3216100.952;0.00213453
3222428.571;0.002140524
3227443.81;0.002146518
3230062.857;0.002152512
3233988.571;0.00215784
3238133.333;0.002163168
3240314.286;0.00216783
3242714.286;0.002172492
3245984.762;0.002177154
3247076.19;0.002182482
3243803.81;0.002188476
3245767.619;0.002193804
3246531.429;0.002198466
3246859.048;0.002203794
3247403.81;0.002208456
3247729.524;0.00221445
3246859.048;0.002221776
3247403.81;0.00222777
3248929.524;0.002233764
3249801.905;0.002240424
3256891.429;0.002247084
3263000;0.00225441
3273687.619;0.002260404
3270417.143;0.00226773
3276523.81;0.002273724
3279140.952;0.002279718
3285249.524;0.002285712
3292883.81;0.002292372
3312950.476;0.0022977
3319495.238;0.002303028
3316222.857;0.002309022
3322331.429;0.002315016
3321459.048;0.002321676
3320584.762;0.002328336
3318514.286;0.002334996
3320912.381;0.002341656
3323095.238;0.00234765
3342180.952;0.002354976
3337817.143;0.002361636
3343706.667;0.002368296
3346979.048;0.002374956
3351996.19;0.002381616
3367483.81;0.002388942
3363121.905;0.002396268
3368575.238;0.002402928
3372718.095;0.002409588
3386680;0.002415582
3385152.381;0.002422242
3391260.952;0.002428902
3396276.19;0.002435562
3399112.381;0.002443554
3404346.667;0.002450214
3418089.524;0.002455542
3423761.905;0.002462202
3420270.476;0.002468862
3422451.429;0.002475522
3424634.286;0.002482848
3427470.476;0.002489508
3430304.762;0.002496168
3432921.905;0.002502828
3436630.476;0.002508822
3449937.143;0.00251415
3458662.857;0.002519478
3454299.048;0.002525472
3459752.381;0.002532132
3463024.762;0.002538126
3464114.286;0.002542788
3467169.524;0.002546784
3463024.762;0.002551446
3464550.476;0.002556774
3465314.286;0.002562768
3466622.857;0.00256743
3466841.905;0.002572758
3467822.857;0.002578086
3467822.857;0.002582748
3467386.667;0.002588076
3468041.905;0.00259407
3468367.619;0.00260073
3468367.619;0.002606724
3470986.667;0.002613384
3486582.857;0.002622042
3481346.667;0.002630034
3488327.619;0.00263736
3507523.81;0.002646018
3524973.333;0.00265401
3532390.476;0.002661336
3541986.667;0.002669328
3554201.905;0.002677986
3560746.667;0.00268731
3570780.952;0.002695968
3585177.143;0.002703294
3596956.19;0.002708622
3606554.286;0.002713284
3613097.143;0.002719278
3610916.19;0.002727936
3615060.952;0.002735928
3618114.286;0.002744586
3621603.81;0.002752578
3636219.048;0.002761236
3651051.429;0.002769228
3659777.143;0.00277722
3658249.524;0.00278388
3666758.095;0.002789874
3684207.619;0.002796534
3690752.381;0.002803194
3685735.238;0.002811186
3688135.238;0.002818512
3688571.429;0.002824506
3691405.714;0.002831166
3705148.571;0.002836494
3704493.333;0.002841822
3710601.905;0.002847816
3712346.667;0.00285381
3713436.19;0.002859804
3708093.333;0.00286713
3710493.333;0.002875122
3712891.429;0.002883114
3714419.048;0.002891772
3715072.381;0.002901096
3724998.095;0.002909088
3747028.571;0.002917746
3756626.667;0.002926404
3765352.381;0.002935728
3784982.857;0.002944386
3801561.905;0.002952378
3810723.81;0.002959704
3823809.524;0.002966364
3835590.476;0.00297369
3839952.381;0.002981682
3839952.381;0.002989674
3844750.476;0.002996334
3850640;0.003002994
3868308.571;0.003008322
3875289.524;0.00301365
3874198.095;0.003018978
3878561.905;0.003024306
3878996.19;0.003029634
3878342.857;0.003034962
3873761.905;0.003040956
3875070.476;0.003046284
3870708.571;0.003051612
3868527.619;0.00305694
3871798.095;0.003062268
3871363.81;0.003068262
3870708.571;0.003074922
3870925.714;0.003082914
3871798.095;0.00309024
3871472.381;0.003097566
3872561.905;0.003104226
3875180.952;0.003112218
3893175.238;0.00312021
3915424.762;0.00312687
3935057.143;0.003132864
3939419.048;0.003139524
3936582.857;0.003145518
3939638.095;0.003151512
3940291.429;0.003157506
3943127.619;0.003164166
3944219.048;0.003171492
3943236.19;0.003179484
3952506.667;0.00318681
3968649.524;0.003194802
3974756.19;0.003204126
3975847.619;0.003211452
3990897.143;0.00322011
3988716.19;0.003228102
3995914.286;0.00323676
4011838.095;0.003245418
4018382.857;0.00325341
4028853.333;0.003261402
4041504.762;0.003268062
4048483.81;0.003275388
4047175.238;0.003282714
4053720;0.003289374
4069860.952;0.003296034
4080331.429;0.00330336
4074441.905;0.003310686
4076622.857;0.003318678
4079895.238;0.003325338
4092546.667;0.003331998
4098653.333;0.003338658
4097344.762;0.003345318
4103889.524;0.003351978
4107815.238;0.003358638
4112613.333;0.003365298
4118721.905;0.003370626
4119158.095;0.00337662
4121339.048;0.00338328
4115668.571;0.00338994
4117630.476;0.0033966
4120575.238;0.003402594
4142716.19;0.003408588
4144897.143;0.003414582
4143371.429;0.003420576
4144897.143;0.003427236
4145116.19;0.003433896
4146424.762;0.003440556
4147078.095;0.003447882
4154712.381;0.003455208
4161693.333;0.003462534
4177617.143;0.00346986
4174780.952;0.003478518
4183070.476;0.003487842
4199866.667;0.003495834
4208156.19;0.00350316
4206845.714;0.00350982
4214699.048;0.003515814
4220805.714;0.00352314
4224733.333;0.003530466
4227350.476;0.003537126
4233020.952;0.003543786
4247417.143;0.003550446
4241529.524;0.003555774
4248072.381;0.003561102
4249600;0.003567096
4250472.381;0.003574422
4254617.143;0.003580416
4255706.667;0.00358641
4259198.095;0.003594402
4263342.857;0.003601728
4265085.714;0.003607722
4268577.143;0.003614382
4270321.905;0.003620376
4273158.095;0.00362637
4276428.571;0.00363303
4278392.381;0.003638358
4280356.19;0.003644352
4276647.619;0.003650346
4279483.81;0.003657672
4280792.381;0.003663666
4282100.952;0.003670326
4283409.524;0.003677652
4285045.714;0.003684978
4286681.905;0.003691638
4293662.857;0.003697632
4297805.714;0.003701628
4302603.81;0.003707622
4304131.429;0.00371295
4305003.81;0.003718278
4305659.048;0.003724272
4303478.095;0.003731598
4303367.619;0.003738258
4303803.81;0.00374625
4304022.857;0.00375291
4313729.524;0.00375957
4321582.857;0.003766896
4318746.667;0.003773556
4322019.048;0.003780216
4326163.81;0.003788208
4343394.286;0.003795534
4353864.762;0.00380286
4360409.524;0.003808854
4358664.762;0.003814182
4363462.857;0.003820176
4366518.095;0.003825504
4368260.952;0.003831498
4371969.524;0.003836826
4373497.143;0.003841488
4374805.714;0.00384615
4371969.524;0.003850812
4372733.333;0.003855474
4372624.762;0.003860802
4372516.19;0.00386613
4372407.619;0.003871458
4370988.571;0.003878118
4370443.81;0.003884778
4370116.19;0.003891438
4370335.238;0.003898098
4376550.476;0.003904092
4380259.048;0.003910086
4385057.143;0.003916746
4389420.952;0.003923406
4392693.333;0.0039294
4395965.714;0.003935394
4398580.952;0.003941388
4402944.762;0.00394605
4406217.143;0.003952044
4409923.81;0.003958704
4413632.381;0.003963366
4414940.952;0.003968694
4417123.81;0.003974022
4418432.381;0.00397935
4416032.381;0.003985344
4415704.762;0.003990672
4415704.762;0.003996
4415377.143;0.004001328
4415596.19;0.004007322
4417340.952;0.004013982
4417996.19;0.004020642
4425630.476;0.004028634
4430864.762;0.004037292
4433045.714;0.004044618
4439371.429;0.004051278
4457695.238;0.004057938
4462493.333;0.004065264
4459440;0.004071924
4463365.714;0.004079916
4465548.571;0.004087242
4471219.048;0.004094568
4489104.762;0.004100562
4497394.286;0.004107222
4496304.762;0.004113882
4500011.429;0.004119876
4505028.571;0.004126536
4509392.381;0.004133196
4511790.476;0.004139856
4518116.19;0.004144518
4522480;0.004150512
4536220.952;0.004156506
4532295.238;0.0041625
4534476.19;0.004168494
4535567.619;0.004174488
4531422.857;0.004179816
4534586.667;0.004185144
4536984.762;0.004189806
4538729.524;0.004195134
4542546.667;0.004200462
4539820.952;0.004205124
4540474.286;0.004209786
4541348.571;0.004214448
4543201.905;0.00421911
4543965.714;0.004223106
4542765.714;0.004229766
4534040;0.004236426
4535567.619;0.004243086
4533822.857;0.004250412
4540584.762;0.004257738
4549744.762;0.004265064
4559342.857;0.00427239
4572430.476;0.004279716
4584209.524;0.004287042
4592062.857;0.004293702
4591626.667;0.004301028
4599260.952;0.004309686
4604933.333;0.004317678
4613003.81;0.004326336
4631761.905;0.004333662
4641360;0.004341654
4649213.333;0.004350312
4658373.333;0.00435897
4671026.667;0.004366962
4681495.238;0.004374954
4686731.429;0.004382946
4686950.476;0.004390938
4702000;0.004396932
4709417.143;0.004404924
4718140.952;0.004411584
4732975.238;0.004418244
4743007.619;0.00442557
4737337.143;0.004432896
4741918.095;0.00443889
4746280;0.004444884
4756969.524;0.004450878
4752169.524;0.004457538
4754569.524;0.004462866
4755441.905;0.004470192
4757622.857;0.004476186
4761331.429;0.004482846
4763076.19;0.004490172
4763948.571;0.004497498
4767001.905;0.004504158
4764931.429;0.00451215
4772674.286;0.004520808
4777255.238;0.0045288
4790125.714;0.004534794
4801466.667;0.004541454
4813245.714;0.004548114
4818918.095;0.004556106
4814337.143;0.004563432
4819135.238;0.004570758
4821316.19;0.00457875
4826771.429;0.004586742
4833095.238;0.0045954
4841384.762;0.004604058
4857744.762;0.00461205
4854472.381;0.004620042
4862325.714;0.004627368
4877813.333;0.004633362
4892645.714;0.004640688
4901807.619;0.004648014
4898316.19;0.004654674
4906169.524;0.004662666
4922310.476;0.004669326
4930600;0.004677318
4928200;0.004685976
4932561.905;0.004693302
4936272.381;0.004699962
4941070.476;0.004706622
4954158.095;0.00471195
4951758.095;0.004717944
4954811.429;0.004724604
4957430.476;0.004730598
4958302.857;0.004737258
4960700.952;0.004743252
4963973.333;0.00474858
4965064.762;0.004753908
4967026.667;0.004759902
4968990.476;0.004766562
4966373.333;0.004772556
4967137.143;0.004779216
4968773.333;0.00478521
4969318.095;0.004790538
4969426.667;0.004796532
4970735.238;0.00480186
4972699.048;0.004807854
4977497.143;0.004813848
4978588.571;0.004821174
4974335.238;0.004827834
4974988.571;0.00483516
4976952.381;0.004842486
4988622.857;0.004849812
4987967.619;0.004857804
4995384.762;0.004866462
5010872.381;0.00487512
5020906.667;0.004884444
5032683.81;0.004894434
5039664.762;0.004903092
5047954.286;0.004912416
5059733.333;0.004920408
5069767.619;0.004929066
5079800;0.004936392
5089398.095;0.004943718
5098123.81;0.004949712
5096596.19;0.004957038
5101832.381;0.004963032
5104668.571;0.00496836
5105102.857;0.004974354
5106194.286;0.004979682
5104230.476;0.00498501
5105430.476;0.004990338
5105539.048;0.004995666
5104994.286;0.005000994
5104885.714;0.005006322
5104885.714;0.00501165
5105102.857;0.00501831
5104558.095;0.00502497
5103794.286;0.00503163
5104339.048;0.005038956
5105539.048;0.005046948
5108158.095;0.00505494
5117318.095;0.005062266
5124299.048;0.005069592
5140003.81;0.005075586
5137605.714;0.005082246
5143057.143;0.005089572
5147638.095;0.00509823
5150038.095;0.005105556
5156363.81;0.005112882
5173160;0.005120208
5181449.524;0.005126868
5180358.095;0.00513486
5186030.476;0.005142186
5192573.333;0.005150178
5211550.476;0.00515817
5220276.19;0.005166162
5215914.286;0.005175486
5223984.762;0.005183478
5237725.714;0.005190804
5235108.571;0.00519813
5241653.333;0.005206122
5247104.762;0.005212116
5263464.762;0.005219442
5269137.143;0.005226102
5268264.762;0.005232096
5273499.048;0.00523809
5273499.048;0.005247414
5274154.286;0.005254074
5276118.095;0.005260734
5286150.476;0.005267394
5282224.762;0.005273388
5286805.714;0.005278716
5288986.667;0.00528471
5291822.857;0.005290704
5295967.619;0.005296032
5296840;0.005300694
5292259.048;0.005306022
5292259.048;0.005310684
5292367.619;0.005315346
5283316.19;0.005320008
5280260.952;0.00532467
5274590.476;0.005329998
5267392.381;0.00533466
5263683.81;0.005339988
5258449.524;0.005345316
5257139.048;0.005351976
5256702.857;0.005358636
5260520;0.005365296
5257902.857;0.005370624
5257466.667;0.005375952
5259211.429;0.00538128
5260520;0.005388606
5268700.952;0.0053946
5274154.286;0.005399928
5276771.429;0.005405256
5280480;0.00541125
5282443.81;0.005418576
5283097.143;0.005425236
5280480;0.005433228
5284080;0.005439888
5292912.381;0.005445882
5307091.429;0.005451876
5306219.048;0.005459202
5312108.571;0.005467194
5316906.667;0.00547452
5323234.286;0.005482512
5338939.048;0.005489172
5346790.476;0.005495832
5354207.619;0.005501826
5352243.81;0.005507154
