Stress;Strain
686671.8095;0.000115218
702377.1429;0.000121878
716773.7143;0.000127872
727680.1905;0.000133866
738150.2857;0.000140526
751674.2857;0.000147852
770433.5238;0.000155178
782648.7619;0.000162504
789628.9524;0.000170496
803152.9524;0.000178488
819730.6667;0.000187812
834563.619;0.000197136
854195.2381;0.000205128
880370.8571;0.000213786
900875.0476;0.000221778
913526.4762;0.00022977
929668;0.000237762
950608.5714;0.00024642
968495.0476;0.00025641
987254.0952;0.0002664
1006013.333;0.00027639
1048330.667;0.000285714
1078868.762;0.000294372
1089338.857;0.00030303
1108098.095;0.000310356
1129038.476;0.000317682
1149542.667;0.000323676
1164811.81;0.000330336
1184007.238;0.000335664
1200148.762;0.000342324
1206256.19;0.000348984
1205383.81;0.000354978
1212364;0.000360972
1232431.81;0.000367632
1241156.952;0.00037296
1248573.333;0.000378288
1265587.619;0.000384948
1280420.381;0.000391608
1287400.381;0.000397602
1284128.571;0.00040293
1289800;0.000407592
1294816.952;0.000411588
1313576.19;0.000416916
1323173.714;0.000422244
1320556.19;0.000427572
1328845.143;0.000433566
1344986.667;0.00043956
1352839.429;0.000444888
1351748.762;0.000451548
1359383.238;0.000458874
1379887.429;0.0004662
1398210.286;0.00047286
1409116.762;0.000480186
1420459.429;0.000488178
1438782.476;0.000495504
1452306.476;0.00050283
1463649.143;0.000512154
1481972;0.000521478
1498113.524;0.000530802
1516872.762;0.000541458
1540867.048;0.000550782
1558317.524;0.000560106
1575767.619;0.000568098
1595835.81;0.000576756
1618084.952;0.000583416
1641643.048;0.000590742
1654730.667;0.000597402
1661710.857;0.000604062
1671744.571;0.000610722
1681342.286;0.000618048
1687450.095;0.000625374
1688104.381;0.000632034
1706645.333;0.00063936
1717988.19;0.000646686
1727149.524;0.000653346
1736747.429;0.000660006
1748526.286;0.000666666
1760305.333;0.000673992
1772520.571;0.000681318
1788225.905;0.00068931
1804803.81;0.00069597
1820509.143;0.000701298
1834469.524;0.000707958
1845376;0.000713952
1851919.619;0.000718614
1852137.905;0.000723942
1868061.524;0.000728604
1865007.429;0.000733932
1870024.571;0.000739926
1871333.143;0.00074592
1875259.619;0.000751914
1892055.429;0.000758574
1899472;0.0007659
1907760;0.00077256
1919102.857;0.000780552
1933064.762;0.00078921
1946588.571;0.000796536
1959240;0.00080253
1978434.286;0.000807858
1996321.905;0.000813186
2005047.619;0.000819846
2001992.381;0.000826506
2007881.905;0.000833166
2013335.238;0.000840492
2027731.429;0.000847818
2039074.286;0.000855144
2053472.381;0.000863136
2062196.19;0.000870462
2073975.238;0.000878454
2090552.381;0.00088578
2103641.905;0.000894438
2114110.476;0.000901098
2127200;0.000907758
2143340.952;0.000914418
2158173.333;0.000919746
2165590.476;0.000926406
2163626.667;0.000931734
2172133.333;0.000937062
2187403.81;0.00094239
2194382.857;0.000947052
2192638.095;0.000953046
2195038.095;0.000958374
2197655.238;0.000964368
2202889.524;0.000969696
2221866.667;0.000974358
2216632.381;0.00097902
2221430.476;0.000984348
2223177.143;0.00098901
2224266.667;0.000993672
2226666.667;0.000999
2231464.762;0.001006992
2237573.333;0.001012986
2253714.286;0.001019646
2260695.238;0.001027638
2271163.81;0.001034298
2281634.286;0.001040958
2290796.19;0.001050282
2303011.429;0.00105894
2319588.571;0.001066932
2334859.048;0.001074258
2349255.238;0.001081584
2363651.429;0.001086246
2373249.524;0.001090908
2385028.571;0.001096902
2390699.048;0.001102896
2389390.476;0.001109556
2395935.238;0.001116216
2400080;0.001121544
2407714.286;0.001126872
2421674.286;0.001133532
2421674.286;0.001140192
2437379.048;0.001146852
2435417.143;0.00115218
2439560;0.001158174
2447413.333;0.001164168
2470099.048;0.001170162
2476641.905;0.001176156
2485367.619;0.001180818
2493657.143;0.001186146
2501946.667;0.001191474
2509361.905;0.001196802
2508708.571;0.00120213
2513942.857;0.00120879
2515906.667;0.001214784
2519396.19;0.001220778
2522885.714;0.00122877
2535973.333;0.001236096
2544699.048;0.00124209
2558222.857;0.001247418
2570001.905;0.001253412
2579600;0.001259406
2587453.333;0.0012654
2586142.857;0.001270728
2591596.19;0.001276056
2598794.286;0.001282716
2612320;0.001288044
2612100.952;0.001293372
2629769.524;0.0012987
2626280;0.001303362
2631514.286;0.001309356
2634131.429;0.001314684
2637403.81;0.001321344
2640893.333;0.001328004
2645910.476;0.00133533
2651582.857;0.001342656
2666415.238;0.001349982
2680375.238;0.001356642
2691718.095;0.001363968
2704369.524;0.001371294
2715276.19;0.001377954
2711786.667;0.00138528
2720948.571;0.001393272
2740579.048;0.001400598
2750177.143;0.001407924
2756283.81;0.001415916
2771118.095;0.001423242
2783333.333;0.001429902
2792059.048;0.001437228
2806019.048;0.001444554
2813434.286;0.00145188
2811036.19;0.001457874
2817579.048;0.001463868
2823251.429;0.001469862
2838737.143;0.001474524
2848335.238;0.001479852
2857497.143;0.001486512
2853788.571;0.001492506
2859024.762;0.0014985
2864476.19;0.001505826
2877563.81;0.00151182
2873420.952;0.001517148
2879310.476;0.00152181
2895015.238;0.001526472
2903304.762;0.001531134
2897851.429;0.001535796
2900468.571;0.001539126
2900685.714;0.001543122
2901340.952;0.001549116
2900685.714;0.001555776
2903304.762;0.00156177
2908321.905;0.00156843
2909847.619;0.00157509
2913120;0.001581084
2929916.19;0.001587078
2942567.619;0.001593072
2947801.905;0.001600398
2948020.952;0.00160839
2952382.857;0.001617714
2959580.952;0.001626372
2979649.524;0.001636362
2996226.667;0.001645686
3014550.476;0.00165501
3029819.048;0.00166167
3046396.19;0.001668996
3059049.524;0.001676988
3068645.714;0.001685646
3082605.714;0.001692306
3098312.381;0.001700298
3106163.81;0.00170829
3104419.048;0.001716948
3111400;0.00172494
3128849.524;0.0017316
3147173.333;0.00173826
3155024.762;0.001743588
3153499.048;0.00174825
3161350.476;0.00175491
3164841.905;0.001760904
3168331.429;0.001766898
3170295.238;0.001773558
3172257.143;0.001778886
3175529.524;0.001784214
3178801.905;0.001789542
3181201.905;0.001796202
3184255.238;0.001803528
3185344.762;0.001810854
3189489.524;0.001819512
3196034.286;0.001829502
3210866.667;0.001838826
3222645.714;0.001847484
3241840;0.00185814
3254057.143;0.00186813
3264527.619;0.001877454
3284158.095;0.001887444
3301171.429;0.001897434
3313386.667;0.001907424
3324293.333;0.001916748
3338691.429;0.00192474
3356140.952;0.0019314
3367047.619;0.001937394
3379699.048;0.001943388
3385805.714;0.001948716
3382099.048;0.001955376
3387552.381;0.001962036
3389078.095;0.001969362
3391914.286;0.001976022
3395622.857;0.001982016
3398459.048;0.001987344
3401076.19;0.001993338
3404129.524;0.002000664
3407619.048;0.002006658
3410455.238;0.002012652
3415689.524;0.002018646
3422451.429;0.002023974
3427470.476;0.002029302
3432268.571;0.002035962
3434449.524;0.002042622
3436849.524;0.00204795
3439902.857;0.002053944
3442302.857;0.002059272
3446881.905;0.002065266
3449064.762;0.002070594
3451681.905;0.002075922
3454954.286;0.002081916
3450373.333;0.00208791
3451137.143;0.002093238
3452226.667;0.002099232
3453754.286;0.00210456
3455499.048;0.00211122
3461497.143;0.00211788
3465424.762;0.002125206
3472840;0.002132532
3488763.81;0.002140524
3495744.762;0.002148516
3505777.143;0.002156508
3516683.81;0.002165832
3528026.667;0.00217449
3539369.524;0.002181816
3545478.095;0.002190474
3545041.905;0.002200464
3565544.762;0.002209788
3580379.048;0.002218446
3593030.476;0.002227104
3606990.476;0.002235762
3617459.048;0.002243088
3627493.333;0.002250414
3640146.667;0.00225774
3647998.095;0.0022644
3645161.905;0.002271726
3652360;0.002279052
3655415.238;0.002287044
3656940.952;0.002293704
3660868.571;0.00230103
3664140.952;0.00230769
3668502.857;0.00231435
3677009.524;0.002320344
3682245.714;0.002326338
3685952.381;0.002332332
3689443.81;0.002338326
3693369.524;0.002344986
3697514.286;0.002350314
3702531.429;0.002355642
3707329.524;0.00236097
3710601.905;0.002365632
3712346.667;0.002370294
3711910.476;0.002376288
3709293.333;0.002381616
3708420.952;0.002388276
3708857.143;0.00239427
3710165.714;0.00240093
3719980.952;0.002408256
3718891.429;0.002414916
3726525.714;0.002421576
3743975.238;0.002428902
3749211.429;0.002436228
3747683.81;0.002444886
3751828.571;0.002453544
3755973.333;0.002462202
3771895.238;0.002470194
3786729.524;0.002478852
3800253.333;0.002486844
3808540.952;0.002494836
3815521.905;0.002502828
3826428.571;0.002510154
3836899.048;0.002518146
3843441.905;0.002525472
3844097.143;0.002530134
3860020.952;0.002536128
3868308.571;0.002542788
3866127.619;0.002548782
3870272.381;0.002555442
3873980.952;0.002561436
3875070.476;0.002568762
3876380.952;0.00257409
3873544.762;0.002579418
3876925.714;0.002584746
3878670.476;0.00259074
3879106.667;0.002596734
3879325.714;0.00260073
3879434.286;0.002604726
3881287.619;0.002610054
3882596.19;0.002616048
3882596.19;0.002621376
3880742.857;0.002626038
3880415.238;0.002630034
3881615.238;0.00263403
3881287.619;0.002639358
3880196.19;0.002645352
3877689.524;0.002651346
3870489.524;0.002656008
3870272.381;0.002662002
3870055.238;0.002669328
3872780.952;0.002676654
3872889.524;0.00268398
3879651.429;0.002691972
3886413.333;0.00270063
3893830.476;0.002708622
3898628.571;0.002716614
3906700.952;0.002723274
3927640;0.0027306
3933312.381;0.00273726
3932440;0.00274392
3938982.857;0.00275058
3942691.429;0.002757906
3950108.571;0.002765898
3965158.095;0.002771892
3974756.19;0.002777886
3984354.286;0.002783214
3979337.143;0.002789208
3983481.905;0.002794536
3984135.238;0.002799198
3984135.238;0.002804526
3982826.667;0.002811852
3985118.095;0.00281718
3985662.857;0.002823174
3986318.095;0.002829168
3989371.429;0.002835162
3995478.095;0.002842488
3999622.857;0.002848482
4003331.429;0.00285381
4003767.619;0.002859804
4007257.143;0.002865798
4010529.524;0.002871126
4013365.714;0.002877786
4015327.619;0.002882448
4016419.048;0.002887776
4018600;0.002892438
4016638.095;0.002897766
4018163.81;0.002903094
4019908.571;0.002908422
4021436.19;0.002914416
4021653.333;0.00292041
4021980.952;0.00292707
4023072.381;0.002933064
4024053.333;0.002939724
4024598.095;0.002945718
4026670.476;0.00295038
4032342.857;0.002956374
4032123.81;0.002963034
4034087.619;0.002969028
4033542.857;0.002975022
4039977.143;0.002981682
4042158.095;0.002988342
4044994.286;0.002995002
4050011.429;0.003002328
4067243.81;0.003008988
4063752.381;0.003016314
4070950.476;0.003022974
4075095.238;0.003030966
4081640;0.003037626
4097344.762;0.003044952
4094944.762;0.003052944
4102144.762;0.003061602
4108251.429;0.003069594
4127447.619;0.00307692
4133554.286;0.003084246
4130500.952;0.003090906
4137262.857;0.003097566
4139662.857;0.003104226
4143371.429;0.003110886
4149914.286;0.00311688
4162782.857;0.003122874
4159512.381;0.003129534
4166055.238;0.003135528
4169110.476;0.003141522
4172163.81;0.00314685
4174563.81;0.003152178
4178489.524;0.003157506
4182415.238;0.003162834
4184815.238;0.003168162
4184379.048;0.003172824
4180342.857;0.003177486
4181761.905;0.003182148
4181870.476;0.003188142
4180889.524;0.003192804
4178706.667;0.003198132
4178489.524;0.00320346
4177508.571;0.003208122
4178270.476;0.003212118
4177617.143;0.003217446
4175980.952;0.003222774
4175436.19;0.003229434
4176200;0.003236094
4176744.762;0.003244086
4175761.905;0.003252078
4177398.095;0.00326007
4198120;0.00326673
4210337.143;0.003274056
4216007.619;0.003282714
4215571.429;0.003290706
4223424.762;0.003298698
4241746.667;0.003305358
4251780.952;0.00331335
4258760;0.003321342
4258979.048;0.003329334
4274466.667;0.003337326
4282320;0.003345318
4295405.714;0.003351978
4306312.381;0.003357972
4311984.762;0.003365298
4313074.286;0.003371292
4319401.905;0.003377952
4323763.81;0.003384612
4328561.905;0.003391938
4331398.095;0.003399264
4334451.429;0.00340659
4338815.238;0.003414582
4341868.571;0.003421242
4346013.333;0.003428568
4346666.667;0.003435894
4351683.81;0.003443886
4365643.81;0.003451878
4373497.143;0.003459204
4383531.429;0.00346653
4379822.857;0.003474522
4385495.238;0.003482514
4389638.095;0.00348984
4394219.048;0.003497166
4400327.619;0.003505158
4416687.619;0.003512484
4433700.952;0.003521142
4442862.857;0.003527136
4438499.048;0.003534462
4445043.81;0.003541122
4446788.571;0.003548448
4448316.19;0.003553776
4453767.619;0.003561102
4468601.905;0.003567762
4473836.19;0.003575754
4472527.619;0.003584412
4474491.429;0.003593736
4479508.571;0.003601062
4496958.095;0.003608388
4507428.571;0.00361638
4513973.333;0.003623706
4513100.952;0.003631698
4520299.048;0.003639024
4534476.19;0.003645684
4541893.333;0.003654342
4554108.571;0.003663
4564579.048;0.00366966
4559561.905;0.003675654
4567415.238;0.003681648
4571777.143;0.003687642
4572649.524;0.003694968
4576794.286;0.00370296
4578975.238;0.003708288
4581592.381;0.003713616
4588573.333;0.003718944
4592935.238;0.003724272
4594899.048;0.0037296
4594899.048;0.003734928
4591081.905;0.00373959
4592716.19;0.003744918
4593262.857;0.003750246
4593807.619;0.003757572
4592499.048;0.003763566
4591081.905;0.00376956
4591299.048;0.003775554
4591190.476;0.003781548
4590209.524;0.003786876
4589009.524;0.003793536
4588573.333;0.003801528
4588245.714;0.003808854
4588573.333;0.00381618
4591190.476;0.003824838
4608203.81;0.003833496
4613876.19;0.003841488
4614965.714;0.003850146
4632634.286;0.00385947
4649649.524;0.003868128
4665790.476;0.003875454
4674516.19;0.003883446
4671243.81;0.003892104
4677788.571;0.003900096
4682150.476;0.003908754
4688040;0.003916746
4707234.286;0.003924738
4714215.238;0.003932064
4712251.429;0.00393939
4720321.905;0.00394605
4734283.81;0.003953376
4733411.429;0.003960036
4749988.571;0.003966696
4756969.524;0.003973356
4752605.714;0.003980016
4756969.524;0.003986676
4760022.857;0.003992004
4760240;0.003998664
4763512.381;0.004004658
4764820.952;0.004011318
4762640;0.004017978
4768748.571;0.004024638
4766676.19;0.004030632
4768093.333;0.004036626
4773982.857;0.004041954
4772019.048;0.004048614
4779000;0.004053942
4780091.429;0.004060602
4777691.429;0.004067928
4779000;0.004073922
4780417.143;0.004080582
4782163.81;0.004087242
4783908.571;0.00409257
4786306.667;0.004098564
4795796.19;0.00410589
4799285.714;0.004113882
4800158.095;0.004121874
4801685.714;0.004130532
4805394.286;0.004137858
4826771.429;0.00414585
4840295.238;0.00415251
4850763.81;0.004160502
4855563.81;0.004168494
4854036.19;0.004174488
4859489.524;0.004179816
4864725.714;0.00418581
4867342.857;0.00419247
4867779.048;0.004200462
4869523.81;0.004208454
4867670.476;0.004217778
4883483.81;0.004227102
4883047.619;0.004236426
4902680;0.004244418
4920565.714;0.004251744
4927982.857;0.004258404
4926238.095;0.004263732
4930600;0.004267728
4931689.524;0.004271724
4932127.619;0.00427572
4928310.476;0.004279716
4928963.81;0.004283046
4922965.714;0.004287042
4916857.143;0.004291704
4899188.571;0.004295034
4892209.524;0.004298364
4893300.952;0.004303026
4885228.571;0.004307688
4869087.619;0.004313016
4862106.667;0.004320342
4864723.81;0.004328334
4862106.667;0.004336326
4863851.429;0.004342986
4869740.952;0.004350312
4874758.095;0.00435897
4881302.857;0.004366962
4888500.952;0.00437562
4905297.143;0.004383612
4919257.143;0.004390938
4934525.714;0.004396932
4946304.762;0.004403592
4951977.143;0.00440892
4947613.333;0.004414248
4948487.619;0.004419576
4947613.333;0.004424904
4944996.19;0.004430898
4947287.619;0.004437558
4948921.905;0.004443552
4949468.571;0.00444888
4954811.429;0.004454208
4958739.048;0.004459536
4960047.619;0.004466862
4962228.571;0.004474188
4957430.476;0.004480848
4959939.048;0.004486842
4962992.381;0.004493502
4980769.524;0.004500162
4976843.81;0.004506156
4981641.905;0.004512816
4983822.857;0.004518144
4986659.048;0.004524804
4989931.429;0.004530798
4993640;0.00453546
4998001.905;0.004541454
4998438.095;0.004546782
5000401.905;0.004552776
4997238.095;0.004559436
4997457.143;0.00456543
4997565.714;0.004570758
4999201.905;0.004577418
4999746.667;0.004584078
4999965.714;0.004589406
5007380.952;0.0045954
5009563.81;0.004600728
5012180.952;0.004606056
5013270.476;0.004610718
5010544.762;0.004616046
5011961.905;0.00462204
5012289.524;0.004628034
5012617.143;0.004634694
5012289.524;0.004641354
5012180.952;0.004649346
5013270.476;0.004656006
5015125.714;0.004663332
5022432.381;0.00467199
5026794.286;0.00467865
5032030.476;0.004683978
5051443.81;0.004689972
5058422.857;0.004696632
5052533.333;0.004702626
5053624.762;0.004707954
5052535.238;0.00471528
5050571.429;0.004721274
5054388.571;0.0047286
5061695.238;0.004734594
5064312.381;0.004740588
5066931.429;0.004747914
5067803.81;0.004755906
5064312.381;0.004763232
5067695.238;0.004769892
5088089.524;0.004776552
5095506.667;0.004782546
5092887.619;0.004787874
5098123.81;0.004793202
5102485.714;0.00479853
5105321.905;0.004803858
5105102.857;0.004809852
5106194.286;0.00481518
5103249.524;0.004820508
5104558.095;0.004825836
5105430.476;0.004831164
5106739.048;0.004835826
5106849.524;0.00484182
5112083.81;0.004846482
5114047.619;0.004853142
5110775.238;0.004859136
5112628.571;0.00486513
5113828.571;0.00487179
5116337.143;0.004877784
5122118.095;0.004883778
5123643.81;0.004891104
5127788.571;0.004897764
5130841.905;0.004904424
5135859.048;0.004910418
5143057.143;0.004917078
5149384.762;0.004924404
5156582.857;0.004933062
5162908.571;0.00494172
5168798.095;0.004950378
5186247.619;0.004959702
5202824.762;0.004967694
5215912.381;0.00497502
5224201.905;0.004982346
5232491.429;0.004989006
5246887.619;0.004996998
5255613.333;0.00500499
5248415.238;0.005010984
5253430.476;0.005017644
5257139.048;0.005024304
5267392.381;0.00503163
5267392.381;0.005039622
5271754.286;0.005046282
5275462.857;0.005052942
5293131.429;0.00505827
5301420.952;0.00506493
5296403.81;0.005072922
5300548.571;0.005079582
5303382.857;0.005087574
5306655.238;0.005095566
5311236.19;0.005104224
5315380.952;0.005112216
5318870.476;0.005119542
5324106.667;0.005126202
5339375.238;0.005132196
5346790.476;0.005137524
5343737.143;0.005143518
5347226.667;0.005150844
5348535.238;0.00515817
5348099.048;0.005164164
5352243.81;0.005170158
5364241.905;0.005176152
5360314.286;0.005182812
5365767.619;0.005190138
5367514.286;0.005199462
5368822.857;0.00520812
5374057.143;0.00521811
5392598.095;0.0052281
5407868.571;0.00523809
5424009.524;0.005246748
5443203.81;0.00525474
5458910.476;0.005263398
5464580.952;0.005270724
5464363.81;0.00527805
5480285.714;0.005285376
5489447.619;0.005292702
5495556.19;0.00530136
5495556.19;0.005309352
5502535.238;0.005315346
5508424.762;0.005322006
5515841.905;0.005329998
5530455.238;0.005336658
5527401.905;0.005343318
5531327.619;0.005349978
5532201.905;0.005356638
5531329.524;0.005363298
5530674.286;0.005369292
5533838.095;0.005373954
5539836.19;0.005379282
5541580.952;0.005383944
5536563.81;0.005389938
5536672.381;0.005395266
5531982.857;0.005399928
5529146.667;0.00540459
5527401.905;0.00541125
5525003.81;0.005417244
5523040;0.005423238
5521295.238;0.005428566
5524129.524;0.005435226
5523148.571;0.005441886
5522057.143;0.005448546
5522167.619;0.005455206
5522820.952;0.005461866
5523584.762;0.005469858
5532855.238;0.00547785
5546161.905;0.005486508
5542453.333;0.005495166
5549651.429;0.005503824
5553796.19;0.005513148
5560121.905;0.005522472
5579754.286;0.005530464
5590659.048;0.005539788
5605929.524;0.005548446
5619017.143;0.005555772
5627304.762;0.005563098
5637775.238;0.005569758
5643883.81;0.005576418
